'ibeam009.ng1' 'Mar 27 2002 17:52' 'I'       7500.    1  'NEUT'   51  'RAW'
  Filename         Date            Scan       Mon    Prf  Base   #pts  Type
ibeam                                             
 15  20  40  99   0  0  0     1.5402     0.00000 0.00000   0.00000    2
 Collimation      Mosaic    Wavelength   T-Start   Incr.   H-field #Det
  1       0.40000    0.00800    0.80000
  2       0.40000    0.00800    0.80000
  3       0.00000    0.00000    0.00000
  4       0.00000    0.00000    0.00000
  5       1.20000    0.02400    2.40000
  6       1.60000    0.03200    3.20000
 Mot:    Start       Step      End
     A1         A2         A5         A6       MIN       COUNTS 
    0.40000    0.40000    1.20000    1.60000    0.05        2336
    0.40800    0.40800    1.22400    1.63200    0.05        2418
    0.41600    0.41600    1.24800    1.66400    0.05        2465
    0.42400    0.42400    1.27200    1.69600    0.05        2565
    0.43200    0.43200    1.29600    1.72800    0.03        2587
    0.44000    0.44000    1.32000    1.76000    0.05        2565
    0.44800    0.44800    1.34400    1.79200    0.05        2629
    0.45600    0.45600    1.36800    1.82400    0.03        2721
    0.46400    0.46400    1.39200    1.85600    0.05        2763
    0.47200    0.47200    1.41600    1.88800    0.05        2836
    0.48000    0.48000    1.44000    1.92000    0.03        2822
    0.48800    0.48800    1.46400    1.95200    0.03        2915
    0.49600    0.49600    1.48800    1.98400    0.03        2809
    0.50400    0.50400    1.51200    2.01600    0.05        3034
    0.51200    0.51200    1.53600    2.04800    0.05        3039
    0.52000    0.52000    1.56000    2.08000    0.05        3094
    0.52800    0.52800    1.58400    2.11200    0.05        3076
    0.53600    0.53600    1.60800    2.14400    0.05        3218
    0.54400    0.54400    1.63200    2.17600    0.03        3314
    0.55200    0.55200    1.65600    2.20800    0.03        3302
    0.56000    0.56000    1.68000    2.24000    0.03        3454
    0.56800    0.56800    1.70400    2.27200    0.03        3567
    0.57600    0.57600    1.72800    2.30400    0.03        3531
    0.58400    0.58400    1.75200    2.33600    0.03        3610
    0.59200    0.59200    1.77600    2.36800    0.03        3614
    0.60000    0.60000    1.80000    2.40000    0.03        3666
    0.60800    0.60800    1.82400    2.43200    0.03        3685
    0.61600    0.61600    1.84800    2.46400    0.03        3685
    0.62400    0.62400    1.87200    2.49600    0.03        3919
    0.63200    0.63200    1.89600    2.52800    0.03        3891
    0.64000    0.64000    1.92000    2.56000    0.03        3905
    0.64800    0.64800    1.94400    2.59200    0.02        4001
    0.65600    0.65600    1.96800    2.62400    0.03        4041
    0.66400    0.66400    1.99200    2.65600    0.03        4090
    0.67200    0.67200    2.01600    2.68800    0.03        4017
    0.68000    0.68000    2.04000    2.72000    0.03        4114
    0.68800    0.68800    2.06400    2.75200    0.03        4241
    0.69600    0.69600    2.08800    2.78400    0.03        4263
    0.70400    0.70400    2.11200    2.81600    0.03        4379
    0.71200    0.71200    2.13600    2.84800    0.02        4469
    0.72000    0.72000    2.16000    2.88000    0.03        4510
    0.72800    0.72800    2.18400    2.91200    0.02        4488
    0.73600    0.73600    2.20800    2.94400    0.03        4597
    0.74400    0.74400    2.23200    2.97600    0.02        4487
    0.75200    0.75200    2.25600    3.00800    0.02        4613
    0.76000    0.76000    2.28000    3.04000    0.03        4791
    0.76800    0.76800    2.30400    3.07200    0.03        4717
    0.77600    0.77600    2.32800    3.10400    0.02        4894
    0.78400    0.78400    2.35200    3.13600    0.03        4988
    0.79200    0.79200    2.37600    3.16800    0.03        4945
    0.80000    0.80000    2.40000    3.20000    0.02        4973
